File: src/lahde/tccbuilder/public/TCCMaterialLibrary/100023-NiTi/data/Thermal conductivity.txt
Data from Warzoha 2020 (10.1016/j.ijheatmasstransfer.2020.119760)
Temperature(K)	Thermal conductivity(W/m/K)

208.28	10.7234
218.275	9.35473
227.35	8.47633
240.332	8.23119
320.288	18.2
330.282	17.5463
340.277	17.9548
350.271	18.3634