File: src/lahde/tccbuilder/public/TCCMaterialLibrary/100022-NiTi/data/Thermal conductivity.txt
Data from Warzoha 2020 (10.1016/j.ijheatmasstransfer.2020.119760)
Temperature(K)	Thermal conductivity(W/m/K)

211.29	8.98662
219.213	8.47902
228.158	8.54818
240.992	8.45597
325.775	14.7723
337.183	13.9655
347.036	14.1038
357.277	14.0346