File: src/lahde/tccbuilder/public/TCCMaterialLibrary/100024-NiTi/data/Thermal conductivity.txt
Data from Warzoha 2020 (10.1016/j.ijheatmasstransfer.2020.119760)
Temperature(K)	Thermal conductivity(W/m/K)

207.821	11.7244
217.011	11.4996
229.188	10.6825
240.217	9.37515
323.045	22.5715
333.384	21.6727
343.378	21.9178
353.373	22.2855