File: src/lahde/tccbuilder/public/TCCMaterialLibrary/110026-NiTi/data/Thermal conductivity.txt
Data from Goodson 2008 (10.1115/1.29459)
Temperature(K)	Thermal conductivity(W/m/K)

239.486	4.85625
242.793	4.85625
247.118	4.95721
252.459	5.05817
257.42	5.1137
262.762	5.08173
267.976	5.22139
272.682	5.25505
278.024	5.36106
282.73	5.3863
287.563	5.44183
291.251	5.50072
296.593	5.52933
303.334	5.58149