File: src/lahde/tccbuilder/public/TCCMaterialLibrary/500008-Diamond/data/Thermal conductivity.txt
Data from Berman 1975 (10.1088/0022-3719/8/21/003) and
Burgemeister 1977 (10.1016/0378-4363(78)90123-7)
Temperature(K)	Thermal conductivity(W/m/K)

1.92352	3.63078
2.3732	6.71128
2.82801	9.92989
3.31669	15.5378
3.88982	24.9029
4.52577	36.8459
5.14129	46.8334
5.79415	69.85
6.90457	109.298
8.22779	172.396
10.4501	324.215
12.1586	475.883
14.2596	676.516
16.0703	887.837
17.6832	1058.58
21.7546	1566.25
25.3113	2280.63
29.2157	2830.12
34.8147	4088.16
38.9242	4952.92
52.2739	7446.37
64.3097	8598.93
80.3878	9540.77
103.741	8807.67
120.701	7874.99
149.68	6929.38
158.268	5765.45
188.599	4683.34
205.88	3927.96
228.354	3401.47
257.352	2922.1
285.446	2373.65
299.427	2156.5
319.221	1860.86
324.329	1809.8
329.27	1750.36
333.276	1697.59
338.865	1628.19
344.808	1570.34
349.268	1527.25
356.739	1464.81
362.721	1397.13
371.321	1343.75
377.263	1271
384.751	1219.04
390.317	1182.29
395.963	1140.29
404.433	1090.63
412.461	1048.96
420.012	1008.88
425.123	967.635
432.579	935.856
439.5	900.098
448.224	860.901